File: examples/quantum_dot_api_example/measurements/experiment_01_measurement.csv
Wavelength (nm),Intensity (a.u.)
400.0,1.06457
401.003,8.60983
402.007,-3.84871
403.01,5.18053
404.013,0.561127
405.017,-7.04075
406.02,-3.15801
407.023,0.723953
408.027,1.32361
409.03,-1.60691
410.033,3.36935
411.037,9.05155
412.04,2.4085
413.043,-1.75221
414.047,-1.69503
415.05,2.41408
416.054,-7.93889
417.057,-2.60383
418.06,-2.12178
419.064,2.54576
420.067,-1.85105
421.07,7.43686
422.074,-3.45653
423.077,-4.9675
424.08,-7.61004
425.084,-7.59406
426.087,1.45413
427.09,4.03777
428.094,-8.39228
429.097,1.48517
430.1,-2.28312
431.104,8.40385
432.107,-3.80269
433.11,4.41719
434.114,1.26203
435.117,-0.381249
436.12,-3.22072
437.124,-1.48505
438.127,-3.8129
439.13,-4.41219
440.134,7.83477
441.137,-6.02991
442.14,-2.1317
443.144,-8.41237
444.147,-1.04615
445.151,0.115271
446.154,-4.84146
447.157,0.132517
448.161,-0.313375
449.164,4.96277
450.167,-2.6068
451.171,-5.74597
452.174,-4.77203
453.177,9.33166
454.181,6.67845
455.184,0.56563
456.187,-0.551707
457.191,-1.45547
458.194,6.23709
459.197,5.89741
460.201,6.48972
461.204,0.547622
462.207,-3.60565
463.211,-0.785748
464.214,12.3162
465.217,2.18551
466.221,3.86298
467.224,3.21429
468.227,-0.872896
469.231,3.68996
470.234,-6.53501
471.237,-1.70753
472.241,9.04986
473.244,9.21884
474.247,-0.243896
475.251,15.4592
476.254,5.16527
477.258,0.400304
478.261,7.22077
479.264,7.43427
480.268,2.50186
481.271,9.96984
482.274,11.808
483.278,17.1096
484.281,13.3014
485.284,17.8879
486.288,24.4524
487.291,33.5666
488.294,32.0188
489.298,37.5261
490.301,41.0121
491.304,51.3027
492.308,62.8448
493.311,73.183
494.314,71.4476
495.318,71.0128
496.321,88.5214
497.324,94.1865
498.328,106.279
499.331,117.824
500.334,110.67
501.338,128.277
502.341,131.654
503.344,150.385
504.348,147.2
505.351,169.347
506.355,176.287
507.358,178.696
508.361,183.581
509.365,195.216
510.368,208.242
511.371,203.9
512.375,209.977
513.378,217.213
514.381,216.96
515.385,216.214
516.388,222.535
517.391,221.396
518.395,227.713
519.398,221.157
520.401,225.222
521.405,220.754
522.408,220.18
523.411,209.941
524.415,203.599
525.418,199.549
526.421,197.871
527.425,180.7
528.428,183.692
529.431,171.558
530.435,167.43
531.438,149.783
532.441,143.575
533.445,126.888
534.448,134.751
535.452,126.091
536.455,110.265
537.458,93.0021
538.462,96.9914
539.465,86.1468
540.468,84.2068
541.472,76.2097
542.475,68.3047
543.478,58.5448
544.482,51.2271
545.485,54.9667
546.488,39.2871
547.492,37.7039
548.495,29.3971
549.498,39.0313
550.502,17.8667
551.505,26.3455
552.508,22.6199
553.512,23.523
554.515,11.4701
555.518,16.5606
556.522,13.195
557.525,11.7516
558.528,11.4085
559.532,10.1589
560.535,1.9391
561.538,8.00745
562.542,-2.71358
563.545,0.982417
564.548,4.77289
565.552,-9.34175
566.555,6.68995
567.559,2.23987
568.562,-1.80277
569.565,-3.04228
570.569,5.28871
571.572,0.407564
572.575,6.45234
573.579,-0.249516
574.582,13.9655
575.585,-1.95212
576.589,1.73383
577.592,-0.915259
578.595,1.07108
579.599,1.28107
580.602,-6.56631
581.605,-2.76744
582.609,2.11466
583.612,2.35959
584.615,-9.342
585.619,4.5663
586.622,8.97428
587.625,-9.88725
588.629,-4.78377
589.632,5.1004
590.635,-0.874955
591.639,3.36595
592.642,-5.18181
593.645,-7.31911
594.649,4.71418
595.652,5.7037
596.656,0.78417
597.659,-3.22458
598.662,-8.97604
599.666,3.14896
600.669,4.01281
601.672,2.48517
602.676,-2.44448
603.679,-1.94689
604.682,-0.119905
605.686,5.20054
606.689,-1.16091
607.692,-7.05139
608.696,3.35208
609.699,3.6608
610.702,9.43519
611.706,9.38317
612.709,3.9518
613.712,6.30967
614.716,6.39853
615.719,4.65596
616.722,0.658846
617.726,-0.72222
618.729,-7.51835
619.732,4.01433
620.736,4.00688
621.739,8.77301
622.742,1.6036
623.746,-1.15755
624.749,8.03714
625.753,-4.22456
626.756,4.10002
627.759,-5.82345
628.763,-2.28331
629.766,4.64741
630.769,-1.13771
631.773,-0.444564
632.776,4.74223
633.779,-3.1549
634.783,-3.33983
635.786,-5.79067
636.789,-1.4237
637.793,-2.2119
638.796,1.84501
639.799,-1.79677
640.803,4.43924
641.806,-4.75778
642.809,-2.6621
643.813,0.913689
644.816,-0.718701
645.819,-1.63381
646.823,4.86052
647.826,-0.540466
648.829,11.0678
649.833,-3.84904
650.836,3.09739
651.839,5.06759
652.843,-5.06539
653.846,0.20862
654.849,1.62307
655.853,-1.84318
656.856,5.57604
657.86,2.31892
658.863,1.42969
659.866,-3.04532
660.87,-0.447508
661.873,-5.49262
662.876,0.265382
663.88,-2.59451
664.883,0.286548
665.886,-0.30387
666.89,-6.03357
667.893,-4.15877
668.896,-3.39103
669.9,-8.47504
670.903,7.69682
671.906,-2.32345
672.91,-9.69789
673.913,-0.755085
674.916,1.39922
675.92,6.82243
676.923,11.2654
677.926,5.59646
678.93,-4.11965
679.933,2.20637
680.936,-1.11937
681.94,-8.48166
682.943,-2.17205
683.946,-2.43105
684.95,6.56606
685.953,-7.59686
686.957,4.44916
687.96,0.758787
688.963,-9.06161
689.967,0.572514
690.97,-2.60743
691.973,7.0515
692.977,-4.72386
693.98,0.468422
694.983,-3.01436
695.987,7.92512
696.99,-2.45291
697.993,-3.32027
698.997,5.91971
700.0,-1.3484