File: examples/quantum_dot_api_example/measurements/experiment_03_measurement.csv
Wavelength (nm),Intensity (a.u.)
400.0,-8.21484
401.003,-4.50075
402.007,-7.83881
403.01,-3.83061
404.013,-5.88388
405.017,0.0243976
406.02,9.87006
407.023,0.226645
408.027,1.24197
409.03,-9.33969
410.033,-5.44104
411.037,3.41384
412.04,-0.284103
413.043,0.392213
414.047,4.28812
415.05,-9.75306
416.054,-0.428936
417.057,-6.65915
418.06,-9.91029
419.064,2.38184
420.067,2.06716
421.07,5.66236
422.074,-0.689599
423.077,-2.01859
424.08,-4.37166
425.084,1.39646
426.087,5.5177
427.09,6.00316
428.094,4.58117
429.097,-8.66125
430.1,-0.395935
431.104,5.29772
432.107,-8.13029
433.11,2.78022
434.114,13.0769
435.117,0.00189489
436.12,5.05069
437.124,-1.98065
438.127,-2.74798
439.13,-2.55115
440.134,-4.67331
441.137,8.23412
442.14,-2.28426
443.144,-4.88593
444.147,-5.55771
445.151,13.6207
446.154,3.06852
447.157,-2.22151
448.161,0.985811
449.164,-0.0564118
450.167,7.49019
451.171,-7.07467
452.174,-2.92448
453.177,6.38605
454.181,-5.96015
455.184,-5.76071
456.187,0.693072
457.191,2.77094
458.194,6.80345
459.197,10.8743
460.201,3.67442
461.204,0.266662
462.207,-4.72943
463.211,5.15981
464.214,-0.431461
465.217,5.9229
466.221,2.97556
467.224,-4.38871
468.227,5.3194
469.231,1.37781
470.234,4.1782
471.237,-7.9987
472.241,0.997381
473.244,-2.04299
474.247,1.36367
475.251,4.02698
476.254,5.70541
477.258,4.38683
478.261,-5.68884
479.264,4.04229
480.268,-2.5277
481.271,6.40554
482.274,9.37475
483.278,6.24899
484.281,-10.0327
485.284,3.97869
486.288,-0.930565
487.291,-6.21154
488.294,6.92219
489.298,5.709
490.301,0.419333
491.304,-4.32796
492.308,2.22276
493.311,-1.43998
494.314,-1.14485
495.318,7.48501
496.321,3.3567
497.324,-3.65016
498.328,3.59115
499.331,4.07208
500.334,7.86678
501.338,-4.82185
502.341,5.55242
503.344,1.57713
504.348,11.0634
505.351,-1.78644
506.355,-9.88271
507.358,-0.12067
508.361,-4.91906
509.365,6.02625
510.368,8.24941
511.371,-5.83212
512.375,-3.17044
513.378,-1.46336
514.381,-0.00941791
515.385,5.67532
516.388,-2.47858
517.391,-0.972497
518.395,-2.18953
519.398,-0.496728
520.401,4.9997
521.405,-4.79035
522.408,-6.67536
523.411,-14.0291
524.415,-2.14421
525.418,6.74744
526.421,3.26979
527.425,9.23985
528.428,3.72441
529.431,-6.30839
530.435,0.199993
531.438,5.32229
532.441,-0.645296
533.445,1.04712
534.448,4.36326
535.452,-0.308615
536.455,0.479242
537.458,2.63409
538.462,2.81417
539.465,5.66762
540.468,-2.22215
541.472,11.2996
542.475,4.02687
543.478,-0.24577
544.482,6.00736
545.485,8.53777
546.488,8.91248
547.492,10.8009
548.495,2.99275
549.498,14.1505
550.502,15.313
551.505,18.038
552.508,14.4596
553.512,0.473949
554.515,19.2825
555.518,21.415
556.522,15.7298
557.525,25.0376
558.528,28.7231
559.532,20.0991
560.535,29.2088
561.538,37.9929
562.542,49.5788
563.545,39.1441
564.548,43.8829
565.552,55.5603
566.555,51.5037
567.559,59.5532
568.562,53.7232
569.565,67.5096
570.569,70.1008
571.572,83.5759
572.575,85.4352
573.579,93.4207
574.582,101.73
575.585,97.6127
576.589,105.506
577.592,118.274
578.595,125.814
579.599,134.774
580.602,137.541
581.605,154.747
582.609,149.698
583.612,158.689
584.615,164.415
585.619,182.048
586.622,192.604
587.625,201.042
588.629,208.931
589.632,211.687
590.635,231.892
591.639,237.371
592.642,242.677
593.645,250.742
594.649,251.727
595.652,270.846
596.656,271.208
597.659,288.505
598.662,282.181
599.666,293.34
600.669,295.821
601.672,301.726
602.676,312.793
603.679,316.182
604.682,327.057
605.686,327.976
606.689,328.768
607.692,324.812
608.696,334.741
609.699,332.584
610.702,338.479
611.706,324.026
612.709,334.993
613.712,337.214
614.716,333.494
615.719,332.767
616.722,323.213
617.726,328.499
618.729,324.854
619.732,327.268
620.736,313.966
621.739,310.911
622.742,305.181
623.746,296.098
624.749,281.453
625.753,285.34
626.756,271.478
627.759,260.958
628.763,253.178
629.766,259.964
630.769,227.829
631.773,231.394
632.776,227.585
633.779,214.769
634.783,209.254
635.786,205.644
636.789,181.686
637.793,177.309
638.796,170.701
639.799,162.852
640.803,154.234
641.806,150.377
642.809,140.108
643.813,130.368
644.816,124.738
645.819,121.242
646.823,103.997
647.826,98.4172
648.829,98.9845
649.833,78.4465
650.836,89.5075
651.839,77.1721
652.843,66.7646
653.846,61.2016
654.849,56.0117
655.853,55.3573
656.856,53.4933
657.86,47.8899
658.863,47.1761
659.866,44.2872
660.87,33.8576
661.873,43.0225
662.876,25.7727
663.88,25.1233
664.883,19.646
665.886,24.6931
666.89,14.0653
667.893,24.1451
668.896,20.1857
669.9,16.5135
670.903,10.1837
671.906,5.68341
672.91,14.4033
673.913,14.2806
674.916,4.82598
675.92,9.82144
676.923,13.3662
677.926,15.1439
678.93,-3.89602
679.933,6.34154
680.936,0.0475832
681.94,5.02852
682.943,-0.14538
683.946,-0.318059
684.95,9.25734
685.953,5.65733
686.957,-5.0887
687.96,4.54856
688.963,-7.67728
689.967,-2.25102
690.97,-2.69732
691.973,5.16049
692.977,0.823628
693.98,-2.28669
694.983,4.20268
695.987,-1.91591
696.99,3.1161
697.993,6.35541
698.997,5.43719
700.0,6.27133