File: examples/quantum_dot_api_example/measurements/experiment_04_measurement.csv
Wavelength (nm),Intensity (a.u.)
400.0,-8.2029
401.003,2.69062
402.007,0.277583
403.01,3.87539
404.013,0.898093
405.017,-9.51744
406.02,-2.47049
407.023,5.08847
408.027,-15.4205
409.03,3.73082
410.033,-8.28977
411.037,-6.38667
412.04,-7.85013
413.043,3.00531
414.047,1.2457
415.05,-3.74261
416.054,1.05267
417.057,0.783999
418.06,-3.07201
419.064,-3.91773
420.067,-0.264477
421.07,-6.04567
422.074,-3.92974
423.077,0.0917784
424.08,0.855731
425.084,-4.88403
426.087,11.6157
427.09,-0.377403
428.094,3.77458
429.097,-1.58038
430.1,-4.45538
431.104,0.00104666
432.107,-5.34314
433.11,2.60016
434.114,-9.5152
435.117,-2.51671
436.12,3.28481
437.124,-4.48543
438.127,4.34535
439.13,-0.179992
440.134,-5.01045
441.137,6.11984
442.14,-1.47179
443.144,-0.292236
444.147,7.33374
445.151,-4.72678
446.154,4.00215
447.157,-2.00802
448.161,-6.14952
449.164,-11.8396
450.167,1.11538
451.171,-2.96909
452.174,-6.86649
453.177,-2.90185
454.181,-4.16822
455.184,-7.80195
456.187,8.51195
457.191,-4.64672
458.194,-2.80862
459.197,-7.51333
460.201,8.89351
461.204,-6.88488
462.207,-2.09649
463.211,4.75439
464.214,-0.471007
465.217,-6.15934
466.221,7.54716
467.224,-0.611687
468.227,4.57071
469.231,-5.842
470.234,7.65077
471.237,4.19334
472.241,-6.41807
473.244,-1.94995
474.247,-0.230569
475.251,6.50895
476.254,1.78455
477.258,-4.37719
478.261,-6.3992
479.264,-6.93265
480.268,1.17667
481.271,1.25836
482.274,0.639099
483.278,8.89268
484.281,0.543781
485.284,9.66249
486.288,7.28546
487.291,0.335469
488.294,-2.14393
489.298,3.17863
490.301,3.54201
491.304,-4.01363
492.308,4.19869
493.311,-5.93009
494.314,-5.26502
495.318,3.12953
496.321,0.274476
497.324,4.90087
498.328,2.28169
499.331,-3.7138
500.334,6.50821
501.338,3.53161
502.341,3.33218
503.344,-2.71846
504.348,0.80382
505.351,4.22757
506.355,-3.69633
507.358,-2.34822
508.361,5.28145
509.365,-2.77428
510.368,1.58762
511.371,-3.21364
512.375,4.58651
513.378,2.26193
514.381,-0.591869
515.385,2.0718
516.388,0.339001
517.391,-15.8019
518.395,-4.1984
519.398,-0.985557
520.401,-9.21939
521.405,1.5572
522.408,-3.40903
523.411,8.93945
524.415,-1.76187
525.418,3.54782
526.421,5.15721
527.425,1.89393
528.428,1.24569
529.431,-4.00901
530.435,-8.59077
531.438,-2.34269
532.441,-13.9112
533.445,0.0188055
534.448,2.35747
535.452,5.0087
536.455,-0.591869
537.458,4.70614
538.462,1.55373
539.465,4.63105
540.468,4.98328
541.472,0.293209
542.475,2.15849
543.478,-3.03116
544.482,-5.49845
545.485,3.70535
546.488,5.49517
547.492,8.5922
548.495,0.148633
549.498,5.16755
550.502,-1.75086
551.505,-4.5807
552.508,10.1012
553.512,-2.01459
554.515,2.77149
555.518,6.16128
556.522,-0.414632
557.525,5.40377
558.528,4.79725
559.532,6.10442
560.535,4.03705
561.538,15.3277
562.542,10.04
563.545,15.2716
564.548,14.4007
565.552,16.158
566.555,14.4012
567.559,15.6748
568.562,12.8265
569.565,5.95474
570.569,31.1989
571.572,38.205
572.575,33.9343
573.579,32.0335
574.582,42.509
575.585,41.637
576.589,49.6236
577.592,48.5874
578.595,58.982
579.599,78.6053
580.602,63.0557
581.605,88.1576
582.609,84.0636
583.612,95.4854
584.615,111.348
585.619,107.919
586.622,121.357
587.625,126.5
588.629,133.254
589.632,153.108
590.635,159.838
591.639,170.986
592.642,171.274
593.645,175.269
594.649,198.791
595.652,195
596.656,208.471
597.659,210.307
598.662,233.099
599.666,244.898
600.669,230.444
601.672,245.473
602.676,245.657
603.679,250.525
604.682,265.747
605.686,259.358
606.689,256.041
607.692,265.186
608.696,254.115
609.699,260.706
610.702,250.498
611.706,250.775
612.709,247.415
613.712,228.895
614.716,239.102
615.719,228.782
616.722,211.692
617.726,216.001
618.729,209.393
619.732,194.388
620.736,193.096
621.739,184.81
622.742,175.269
623.746,156.683
624.749,145.828
625.753,148.505
626.756,134.419
627.759,115.755
628.763,122.964
629.766,114.604
630.769,105.863
631.773,82.2792
632.776,75.3518
633.779,76.9857
634.783,73.5668
635.786,58.544
636.789,53.8743
637.793,46.5942
638.796,51.43
639.799,36.9651
640.803,23.0246
641.806,34.549
642.809,22.8378
643.813,27.9969
644.816,17.3173
645.819,15.6411
646.823,17.5991
647.826,10.3388
648.829,9.37478
649.833,9.88222
650.836,3.60829
651.839,2.4563
652.843,13.6677
653.846,12.7527
654.849,5.06036
655.853,1.93217
656.856,8.61336
657.86,1.77639
658.863,3.11132
659.866,8.27843
660.87,3.40397
661.873,7.43801
662.876,5.28698
663.88,1.40331
664.883,9.47533
665.886,0.758638
666.89,3.84903
667.893,5.35688
668.896,0.469985
669.9,-4.41286
670.903,-3.13744
671.906,1.36505
672.91,-5.94217
673.913,-0.00668793
674.916,-7.34492
675.92,0.675086
676.923,0.567022
677.926,-0.454264
678.93,8.84339
679.933,10.1002
680.936,-6.03395
681.94,4.7213
682.943,0.373373
683.946,-8.90864
684.95,4.47154
685.953,11.519
686.957,0.732907
687.96,-7.7585
688.963,-2.76771
689.967,-1.14255
690.97,0.179747
691.973,6.57196
692.977,-5.76367
693.98,-4.39056
694.983,-4.63785
695.987,-0.490182
696.99,2.04553
697.993,2.94568
698.997,8.24286
700.0,-2.8796