File: examples/quantum_dot_api_example/measurements/experiment_09_measurement.csv
Wavelength (nm),Intensity (a.u.)
400.0,4.17811
401.003,6.3045
402.007,2.38368
403.01,3.72058
404.013,-4.49464
405.017,1.08819
406.02,-9.21532
407.023,0.858764
408.027,0.451328
409.03,-6.63968
410.033,-0.673752
411.037,-6.86852
412.04,3.00444
413.043,6.91947
414.047,11.3211
415.05,-3.05691
416.054,-13.7174
417.057,0.912643
418.06,2.51912
419.064,3.32029
420.067,7.32537
421.07,-4.05666
422.074,0.322131
423.077,1.55095
424.08,-2.24209
425.084,-4.53793
426.087,3.95224
427.09,8.60335
428.094,-4.03155
429.097,5.30605
430.1,2.31435
431.104,-3.56949
432.107,7.82289
433.11,-1.30982
434.114,0.532386
435.117,5.53413
436.12,2.49702
437.124,-5.92564
438.127,4.50338
439.13,-1.90412
440.134,0.808443
441.137,3.0907
442.14,13.9292
443.144,13.1313
444.147,4.21237
445.151,-6.6455
446.154,11.7409
447.157,7.71719
448.161,7.3216
449.164,1.91913
450.167,7.34718
451.171,11.8968
452.174,11.7081
453.177,13.4575
454.181,3.31716
455.184,8.41246
456.187,11.6036
457.191,21.4171
458.194,7.92211
459.197,17.7749
460.201,24.9678
461.204,24.1936
462.207,32.1405
463.211,25.3181
464.214,29.3149
465.217,35.1171
466.221,21.7666
467.224,28.3774
468.227,29.6818
469.231,43.99
470.234,31.1005
471.237,43.5501
472.241,44.7349
473.244,38.0727
474.247,44.8253
475.251,57.4815
476.254,54.5772
477.258,60.3548
478.261,54.7296
479.264,62.2675
480.268,61.4063
481.271,75.5928
482.274,78.9683
483.278,71.5663
484.281,81.6705
485.284,82.7481
486.288,90.3551
487.291,97.2
488.294,101.391
489.298,101.544
490.301,107.73
491.304,102.005
492.308,115.067
493.311,121.003
494.314,116.745
495.318,128.165
496.321,124.888
497.324,127.785
498.328,140.323
499.331,144.666
500.334,146.305
501.338,157.474
502.341,148.939
503.344,156.652
504.348,158.454
505.351,150.707
506.355,153.081
507.358,166.913
508.361,174.49
509.365,171.933
510.368,182.314
511.371,172.77
512.375,176.562
513.378,165.914
514.381,182.473
515.385,189.034
516.388,190.696
517.391,195.731
518.395,185.954
519.398,193.457
520.401,192.371
521.405,186.745
522.408,192.157
523.411,189.185
524.415,187.445
525.418,180.676
526.421,191.568
527.425,191.279
528.428,182.254
529.431,193.9
530.435,189.887
531.438,187.021
532.441,175.467
533.445,171.41
534.448,182.999
535.452,181.129
536.455,175.155
537.458,179.731
538.462,170.053
539.465,161.267
540.468,168.969
541.472,159.897
542.475,152.74
543.478,161.1
544.482,145.03
545.485,141.728
546.488,140.808
547.492,137.826
548.495,128.064
549.498,136.656
550.502,122.875
551.505,120.57
552.508,125.242
553.512,113.905
554.515,108.914
555.518,110.848
556.522,99.7829
557.525,98.851
558.528,92.8801
559.532,90.2464
560.535,85.1685
561.538,80.881
562.542,73.0504
563.545,86.1868
564.548,74.3409
565.552,73.8375
566.555,68.7627
567.559,69.5198
568.562,61.7127
569.565,58.8798
570.569,48.2941
571.572,49.8801
572.575,45.3721
573.579,50.931
574.582,33.0678
575.585,41.3701
576.589,38.1815
577.592,32.0079
578.595,30.2112
579.599,33.635
580.602,28.9372
581.605,27.3925
582.609,23.1716
583.612,26.7081
584.615,19.6896
585.619,23.0207
586.622,11.5246
587.625,25.1006
588.629,16.9487
589.632,14.8689
590.635,14.767
591.639,16.1129
592.642,18.8987
593.645,0.759741
594.649,8.4458
595.652,18.4794
596.656,10.0483
597.659,9.26013
598.662,6.57476
599.666,3.6418
600.669,5.57153
601.672,6.9881
602.676,11.179
603.679,4.39822
604.682,2.61962
605.686,6.9215
606.689,10.4759
607.692,-4.72469
608.696,-4.87849
609.699,0.515179
610.702,-7.38347
611.706,-1.06653
612.709,3.59439
613.712,-2.10251
614.716,11.3703
615.719,8.14831
616.722,-0.0794646
617.726,-4.0785
618.729,-4.48345
619.732,-0.591187
620.736,0.438676
621.739,4.84575
622.742,1.38988
623.746,3.72606
624.749,-7.77493
625.753,-0.566967
626.756,-7.83763
627.759,10.6779
628.763,7.9394
629.766,4.58384
630.769,-1.09859
631.773,6.41747
632.776,5.85479
633.779,0.608222
634.783,0.634987
635.786,-1.48835
636.789,-9.66397
637.793,-1.47754
638.796,-0.700909
639.799,-7.47203
640.803,6.5055
641.806,-1.49505
642.809,-0.176683
643.813,3.54093
644.816,-0.859806
645.819,-8.3218
646.823,8.60646
647.826,-0.649539
648.829,4.75999
649.833,1.93205
650.836,-10.5038
651.839,-4.46301
652.843,1.64657
653.846,3.39184
654.849,-3.6377
655.853,-5.43782
656.856,-1.16843
657.86,-0.708187
658.863,-5.90995
659.866,-2.10939
660.87,-3.944
661.873,-4.27832
662.876,-4.38147
663.88,8.75841
664.883,-0.743529
665.886,-2.50283
666.89,4.09933
667.893,-5.28433
668.896,0.475183
669.9,4.47492
670.903,0.778247
671.906,-5.38584
672.91,0.0417046
673.913,5.48963
674.916,-1.36735
675.92,9.69315
676.923,2.29617
677.926,-8.66906
678.93,-3.47601
679.933,-7.80202
680.936,-2.94295
681.94,0.461612
682.943,10.1419
683.946,0.490469
684.95,-4.83071
685.953,4.66393
686.957,10.2176
687.96,-4.6721
688.963,-10.909
689.967,18.1176
690.97,7.33134
691.973,4.05356
692.977,0.900432
693.98,-2.25035
694.983,4.68732
695.987,4.37555
696.99,-1.52176
697.993,-6.58459
698.997,-6.1275
700.0,8.11355