File: examples/quantum_dot_api_example/measurements/experiment_08_measurement.csv
Wavelength (nm),Intensity (a.u.)
400.0,-1.17672
401.003,-2.02361
402.007,7.51753
403.01,1.16388
404.013,-0.482966
405.017,4.33652
406.02,-3.87166
407.023,6.70418
408.027,4.25175
409.03,3.42211
410.033,-2.52634
411.037,5.59865
412.04,-0.0865719
413.043,-3.63897
414.047,-5.98809
415.05,1.44034
416.054,-1.99634
417.057,0.335565
418.06,3.16824
419.064,0.255079
420.067,-4.72896
421.07,-5.04069
422.074,6.978
423.077,-1.38738
424.08,-2.94858
425.084,-1.37678
426.087,-5.96119
427.09,-5.19144
428.094,-14.5482
429.097,7.13662
430.1,0.222686
431.104,-4.29971
432.107,-1.66778
433.11,0.997089
434.114,6.82748
435.117,0.910832
436.12,4.86816
437.124,0.951161
438.127,-0.694072
439.13,-0.763235
440.134,-2.32061
441.137,1.83597
442.14,-3.42339
443.144,-4.94179
444.147,-8.40962
445.151,-5.14971
446.154,7.21928
447.157,-3.86554
448.161,2.06097
449.164,4.32502
450.167,10.9393
451.171,-10.8421
452.174,3.13891
453.177,8.97596
454.181,4.78793
455.184,-4.8077
456.187,0.186471
457.191,-11.6928
458.194,0.160305
459.197,2.07027
460.201,-0.243463
461.204,-9.03584
462.207,11.4556
463.211,-2.94571
464.214,9.09559
465.217,16.5149
466.221,0.535385
467.224,2.88948
468.227,-4.47277
469.231,3.29049
470.234,5.44261
471.237,-3.48314
472.241,8.48361
473.244,9.32656
474.247,-0.813854
475.251,3.91204
476.254,-2.72264
477.258,8.67876
478.261,5.69649
479.264,3.81362
480.268,7.15546
481.271,11.235
482.274,10.1125
483.278,6.03734
484.281,9.17173
485.284,15.8514
486.288,14.5621
487.291,15.34
488.294,21.1054
489.298,16.1944
490.301,21.6549
491.304,26.9361
492.308,18.9461
493.311,30.1549
494.314,46.7677
495.318,41.0356
496.321,44.4291
497.324,49.867
498.328,57.1268
499.331,59.2715
500.334,65.7535
501.338,73.8333
502.341,73.3879
503.344,89.4999
504.348,99.2705
505.351,95.9695
506.355,104.837
507.358,106.721
508.361,124.99
509.365,130.556
510.368,141.899
511.371,154.164
512.375,147.83
513.378,167.37
514.381,183.338
515.385,186.252
516.388,186.077
517.391,201.584
518.395,202.023
519.398,215.982
520.401,218.069
521.405,232.256
522.408,233.853
523.411,243.582
524.415,240.043
525.418,249.526
526.421,254.817
527.425,254.441
528.428,259.534
529.431,271.383
530.435,261.4
531.438,266.266
532.441,267.119
533.445,273.598
534.448,259.495
535.452,257.565
536.455,254.352
537.458,251.386
538.462,250.437
539.465,243.667
540.468,245.987
541.472,235.423
542.475,222.789
543.478,217.966
544.482,209.429
545.485,195.884
546.488,198.346
547.492,185.175
548.495,170.981
549.498,172.131
550.502,161.378
551.505,159.18
552.508,139.332
553.512,127.908
554.515,126.766
555.518,122.782
556.522,117.035
557.525,106.985
558.528,89.9944
559.532,96.3438
560.535,78.3367
561.538,66.255
562.542,72.9744
563.545,60.52
564.548,48.7628
565.552,44.9528
566.555,45.2133
567.559,44.6934
568.562,36.1517
569.565,36.1041
570.569,30.4873
571.572,22.3916
572.575,19.745
573.579,23.3474
574.582,12.6053
575.585,13.772
576.589,13.6419
577.592,26.0293
578.595,7.90654
579.599,6.92709
580.602,10.4161
581.605,10.0715
582.609,12.6923
583.612,11.9448
584.615,11.8823
585.619,7.12612
586.622,-0.186573
587.625,-1.1458
588.629,-0.654569
589.632,7.53101
590.635,6.84869
591.639,4.03522
592.642,3.91325
593.645,3.20793
594.649,0.0254354
595.652,-1.36549
596.656,7.85655
597.659,0.690272
598.662,-3.76146
599.666,-1.66718
600.669,-0.341825
601.672,5.89096
602.676,-10.7178
603.679,-1.20617
604.682,-6.61566
605.686,6.55637
606.689,2.32712
607.692,6.70328
608.696,-1.35194
609.699,7.57229
610.702,-0.448162
611.706,-0.360202
612.709,0.26389
613.712,-2.15851
614.716,1.06762
615.719,-1.44325
616.722,10.9397
617.726,-7.35622
618.729,0.951259
619.732,-6.72734
620.736,-6.43623
621.739,8.51154
622.742,1.51484
623.746,1.23595
624.749,3.42136
625.753,0.502965
626.756,2.92702
627.759,13.8733
628.763,0.778545
629.766,0.778633
630.769,-1.48397
631.773,-7.44907
632.776,2.61194
633.779,-0.326155
634.783,0.724438
635.786,-2.02022
636.789,-6.02905
637.793,-5.08582
638.796,0.658344
639.799,-0.344736
640.803,-2.72529
641.806,2.61118
642.809,-4.16887
643.813,-4.34876
644.816,-0.644937
645.819,1.58114
646.823,12.1083
647.826,-2.43789
648.829,0.570356
649.833,-2.59817
650.836,-4.01652
651.839,9.53327
652.843,3.53897
653.846,0.0354237
654.849,-6.7027
655.853,3.66703
656.856,-2.87664
657.86,5.77203
658.863,-0.151418
659.866,-5.74085
660.87,-4.83576
661.873,5.44455
662.876,-3.54858
663.88,-2.83857
664.883,3.63708
665.886,-6.63155
666.89,2.51755
667.893,4.10489
668.896,-1.33156
669.9,9.01407
670.903,-1.80393
671.906,-1.14445
672.91,4.43404
673.913,2.63098
674.916,1.30055
675.92,1.66631
676.923,-3.58678
677.926,-2.8479
678.93,7.21235
679.933,-0.730715
680.936,1.91393
681.94,-0.65032
682.943,5.07046
683.946,0.191489
684.95,-6.79275
685.953,-3.25027
686.957,9.63965
687.96,-4.75599
688.963,2.80021
689.967,-2.93856
690.97,-1.46383
691.973,-1.45049
692.977,-2.91356
693.98,-6.05978
694.983,-0.535468
695.987,-0.526977
696.99,1.46687
697.993,9.52648
698.997,-2.5578
700.0,-1.37904