File: examples/quantum_dot_api_example/measurements/experiment_02_measurement.csv
Wavelength (nm),Intensity (a.u.)
400.0,-8.47902
401.003,-4.59214
402.007,3.80754
403.01,-3.80937
404.013,-2.39499
405.017,6.66721
406.02,4.06669
407.023,-5.72751
408.027,-6.55078
409.03,7.90866
410.033,4.41909
411.037,3.16348
412.04,3.54737
413.043,-1.37746
414.047,-1.83681
415.05,-8.44823
416.054,-0.369116
417.057,2.24103
418.06,-0.430297
419.064,-1.4314
420.067,3.19708
421.07,4.47799
422.074,7.22279
423.077,0.280183
424.08,-4.35625
425.084,3.8986
426.087,1.4379
427.09,5.9349
428.094,-3.36907
429.097,-1.3402
430.1,7.97676
431.104,-4.6856
432.107,-0.570617
433.11,-6.15438
434.114,2.97861
435.117,4.30231
436.12,1.61888
437.124,-7.00878
438.127,-0.278394
439.13,-3.79982
440.134,0.812923
441.137,1.80165
442.14,-1.45837
443.144,-1.10901
444.147,11.7016
445.151,-5.20841
446.154,-7.32877
447.157,4.76212
448.161,1.66198
449.164,-3.20268
450.167,-6.39962
451.171,-0.953625
452.174,-6.73514
453.177,-3.98648
454.181,2.19041
455.184,-1.36244
456.187,3.6807
457.191,4.58897
458.194,12.6245
459.197,4.98257
460.201,0.85474
461.204,-0.419615
462.207,11.458
463.211,0.105585
464.214,-2.95856
465.217,7.70536
466.221,1.31324
467.224,6.84308
468.227,-1.0653
469.231,6.5062
470.234,5.74735
471.237,2.57611
472.241,-2.60355
473.244,-18.4062
474.247,-1.00493
475.251,2.50979
476.254,-3.89732
477.258,-2.13996
478.261,6.49554
479.264,4.80441
480.268,-2.13968
481.271,-4.5611
482.274,10.195
483.278,1.71177
484.281,11.5575
485.284,2.40012
486.288,1.78244
487.291,-2.08349
488.294,-3.91938
489.298,-1.4922
490.301,13.0783
491.304,5.90301
492.308,4.83032
493.311,2.59903
494.314,-0.705708
495.318,16.6339
496.321,6.98288
497.324,20.8293
498.328,13.3508
499.331,10.9141
500.334,16.376
501.338,19.6471
502.341,10.0372
503.344,25.1055
504.348,18.8222
505.351,31.3832
506.355,39.9496
507.358,45.6023
508.361,48.9798
509.365,49.9526
510.368,59.5897
511.371,66.6484
512.375,74.5302
513.378,71.7653
514.381,78.6908
515.385,81.8774
516.388,95.6647
517.391,107.931
518.395,116.324
519.398,122.072
520.401,135.52
521.405,148.529
522.408,155.06
523.411,178.131
524.415,178.249
525.418,203.668
526.421,207.384
527.425,230.86
528.428,233.039
529.431,251.86
530.435,268.395
531.438,289.989
532.441,285.785
533.445,307.75
534.448,321.325
535.452,344.837
536.455,343.874
537.458,373.077
538.462,383.624
539.465,394.771
540.468,414.001
541.472,419.775
542.475,422.507
543.478,439.041
544.482,445.019
545.485,455.826
546.488,473.172
547.492,477.543
548.495,476.484
549.498,476.43
550.502,482.596
551.505,482.484
552.508,494.572
553.512,482.845
554.515,485.295
555.518,477.871
556.522,475.874
557.525,460.548
558.528,454.095
559.532,456.537
560.535,461.404
561.538,446.863
562.542,433.927
563.545,411.525
564.548,398.282
565.552,400.372
566.555,376.399
567.559,374.111
568.562,352.656
569.565,335.367
570.569,326.922
571.572,310.66
572.575,304.22
573.579,286.838
574.582,262.391
575.585,243.313
576.589,236.31
577.592,215.494
578.595,206.519
579.599,194.179
580.602,185.398
581.605,163.694
582.609,152.843
583.612,145.519
584.615,135.933
585.619,126.017
586.622,116.079
587.625,105.409
588.629,91.9923
589.632,91.5085
590.635,88.1597
591.639,73.1718
592.642,68.4092
593.645,65.2258
594.649,47.4362
595.652,48.3477
596.656,37.9883
597.659,43.9747
598.662,45.7374
599.666,25.5774
600.669,20.2564
601.672,18.0832
602.676,7.75443
603.679,29.6643
604.682,27.402
605.686,17.1725
606.689,19.6888
607.692,9.29171
608.696,11.6575
609.699,2.12046
610.702,18.0084
611.706,7.70439
612.709,10.2926
613.712,-3.88733
614.716,1.03254
615.719,6.31045
616.722,1.51663
617.726,6.36173
618.729,6.64755
619.732,-4.37624
620.736,-1.162
621.739,2.25717
622.742,-7.58793
623.746,-5.22646
624.749,-3.54735
625.753,0.388151
626.756,0.129784
627.759,-4.13928
628.763,7.01307
629.766,-1.62065
630.769,-6.37143
631.773,0.0553383
632.776,4.44732
633.779,4.26505
634.783,4.32016
635.786,-1.50446
636.789,-4.32583
637.793,7.11756
638.796,-12.5458
639.799,0.459351
640.803,0.854491
641.806,-1.25931
642.809,-3.51429
643.813,-2.22185
644.816,-9.10413
645.819,6.63097
646.823,6.0313
647.826,-5.26044
648.829,-7.01676
649.833,-1.69068
650.836,8.32567
651.839,8.14092
652.843,6.42143
653.846,-6.10387
654.849,6.5126
655.853,3.20338
656.856,4.42758
657.86,6.0068
658.863,7.40627
659.866,-1.03133
660.87,3.68074
661.873,-6.44729
662.876,-4.08865
663.88,-4.80429
664.883,6.80869
665.886,0.0375154
666.89,0.477603
667.893,1.14007
668.896,5.64616
669.9,-1.09388
670.903,-7.08984
671.906,3.19025
672.91,-4.06104
673.913,-0.965403
674.916,-5.52471
675.92,3.57973
676.923,0.370677
677.926,6.31936
678.93,-1.31943
679.933,2.77343
680.936,8.05555
681.94,-0.367749
682.943,0.0738249
683.946,-1.86178
684.95,4.65368
685.953,2.1007
686.957,-6.29428
687.96,-2.4836
688.963,9.36084
689.967,-4.54456
690.97,0.107271
691.973,1.53647
692.977,-7.88569
693.98,-4.11277
694.983,-0.58315
695.987,-0.0967098
696.99,-2.32869
697.993,-7.09721
698.997,4.38184
700.0,1.43571