File: examples/quantum_dot_api_example/measurements/experiment_06_measurement.csv
Wavelength (nm),Intensity (a.u.)
400.0,-7.67148
401.003,1.46538
402.007,-0.162013
403.01,0.0807175
404.013,7.25749
405.017,4.35139
406.02,-0.404792
407.023,2.07313
408.027,0.20019
409.03,4.98101
410.033,7.31111
411.037,3.45381
412.04,2.11756
413.043,3.53386
414.047,-4.55649
415.05,-1.15749
416.054,-6.72156
417.057,0.239995
418.06,5.16197
419.064,-2.72129
420.067,0.0642322
421.07,-4.63283
422.074,2.27378
423.077,-3.80554
424.08,-2.67311
425.084,-0.263232
426.087,0.257038
427.09,-0.436518
428.094,-1.57959
429.097,3.29078
430.1,-5.62164
431.104,7.4573
432.107,-4.43388
433.11,-1.24546
434.114,0.308663
435.117,-2.82398
436.12,-2.98109
437.124,-5.10884
438.127,1.51771
439.13,-6.24746
440.134,9.64354
441.137,1.10836
442.14,1.0811
443.144,-3.3321
444.147,4.01556
445.151,0.440772
446.154,1.41434
447.157,-7.717
448.161,0.223697
449.164,8.24882
450.167,-0.880561
451.171,-2.3522
452.174,-0.270313
453.177,4.09004
454.181,-1.72951
455.184,-4.27533
456.187,-4.75048
457.191,-7.14731
458.194,4.30209
459.197,5.28827
460.201,-1.38651
461.204,2.66984
462.207,-5.33712
463.211,-0.27768
464.214,6.06367
465.217,3.08307
466.221,-1.73533
467.224,9.62202
468.227,10.8489
469.231,10.4515
470.234,1.39472
471.237,8.84788
472.241,-3.60827
473.244,4.18393
474.247,3.0108
475.251,4.03563
476.254,-2.86743
477.258,8.03366
478.261,6.14503
479.264,1.38715
480.268,5.51078
481.271,0.451071
482.274,0.00632157
483.278,3.191
484.281,2.10847
485.284,2.49667
486.288,-1.7717
487.291,4.64388
488.294,2.17274
489.298,-6.18653
490.301,-6.01912
491.304,5.53889
492.308,5.08816
493.311,-5.98251
494.314,-3.08979
495.318,4.21712
496.321,-3.43433
497.324,-3.07411
498.328,3.197
499.331,-3.97261
500.334,-0.284642
501.338,-6.62104
502.341,-6.45743
503.344,0.434053
504.348,-2.33425
505.351,4.85081
506.355,-1.31288
507.358,0.998788
508.361,7.075
509.365,2.45442
510.368,-3.75975
511.371,-5.23973
512.375,-1.78739
513.378,-3.77308
514.381,-1.67249
515.385,-8.13315
516.388,4.34289
517.391,-6.26479
518.395,2.68519
519.398,0.64604
520.401,5.2474
521.405,6.65092
522.408,-0.4185
523.411,3.22119
524.415,-1.36642
525.418,6.74887
526.421,3.4958
527.425,6.19498
528.428,0.511862
529.431,3.12291
530.435,-5.16226
531.438,-2.36061
532.441,-0.391581
533.445,-4.56982
534.448,3.08465
535.452,-3.70957
536.455,4.75289
537.458,-4.10241
538.462,0.623121
539.465,6.73836
540.468,10.2883
541.472,-3.59552
542.475,0.925966
543.478,-3.49846
544.482,-3.79202
545.485,-9.73754
546.488,0.971472
547.492,-4.13926
548.495,-4.7227
549.498,2.53537
550.502,-4.57971
551.505,-7.0333
552.508,5.93145
553.512,0.0215637
554.515,-5.15663
555.518,4.41558
556.522,2.53654
557.525,2.47177
558.528,8.71907
559.532,-2.55113
560.535,-5.62107
561.538,0.543092
562.542,0.46458
563.545,3.26975
564.548,1.39736
565.552,-1.61079
566.555,-0.530791
567.559,-2.34641
568.562,-1.21372
569.565,-0.018021
570.569,-5.98655
571.572,5.92361
572.575,3.71689
573.579,2.99237
574.582,9.32277
575.585,3.46259
576.589,4.8452
577.592,9.91372
578.595,10.618
579.599,8.23716
580.602,23.9026
581.605,4.28656
582.609,26.0619
583.612,33.6074
584.615,40.2422
585.619,35.3485
586.622,31.4417
587.625,49.4936
588.629,68.4963
589.632,72.4445
590.635,67.2439
591.639,86.3628
592.642,98.2172
593.645,108.361
594.649,124.881
595.652,140.666
596.656,146.474
597.659,165.29
598.662,177.061
599.666,196.932
600.669,213.044
601.672,233.279
602.676,254.73
603.679,267.55
604.682,274.433
605.686,306.872
606.689,320.743
607.692,341.568
608.696,355.088
609.699,365.884
610.702,385.596
611.706,398.578
612.709,398.757
613.712,410.733
614.716,418.376
615.719,421.852
616.722,425.743
617.726,426.426
618.729,436.946
619.732,428.954
620.736,412.077
621.739,424.031
622.742,406.675
623.746,405.594
624.749,370.519
625.753,377.196
626.756,353.247
627.759,335.659
628.763,317.608
629.766,303.324
630.769,289.105
631.773,272.188
632.776,245.568
633.779,228.967
634.783,221.21
635.786,193.472
636.789,184.492
637.793,164.686
638.796,148.87
639.799,129.709
640.803,119.529
641.806,113.069
642.809,101.34
643.813,89.3271
644.816,79.799
645.819,66.9539
646.823,47.2789
647.826,51.1062
648.829,46.5177
649.833,38.4334
650.836,35.7379
651.839,32.2043
652.843,17.4597
653.846,21.7031
654.849,11.5601
655.853,28.3978
656.856,7.9273
657.86,2.38021
658.863,5.12609
659.866,1.25376
660.87,6.94306
661.873,7.30051
662.876,5.56833
663.88,3.87017
664.883,6.60148
665.886,0.427612
666.89,-3.93892
667.893,8.18238
668.896,8.24896
669.9,3.42498
670.903,5.09501
671.906,3.23138
672.91,-5.18069
673.913,-0.241729
674.916,-4.47752
675.92,-2.78554
676.923,-9.71047
677.926,2.20473
678.93,11.4074
679.933,-2.64103
680.936,-7.87818
681.94,2.69522
682.943,-3.71729
683.946,1.93677
684.95,6.92784
685.953,3.24557
686.957,-5.90753
687.96,8.54503
688.963,0.492837
689.967,-2.1986
690.97,-2.82027
691.973,-1.17429
692.977,-3.97631
693.98,-7.02305
694.983,1.99983
695.987,-7.21036
696.99,4.62402
697.993,8.08212
698.997,-5.47787
700.0,-4.6129