File: examples/quantum_dot_api_example/measurements/experiment_07_measurement.csv
Wavelength (nm),Intensity (a.u.)
400.0,-4.12726
401.003,-1.58912
402.007,-1.60142
403.01,10.3213
404.013,5.22482
405.017,5.55066
406.02,2.05394
407.023,3.75828
408.027,8.58336
409.03,-0.874914
410.033,-0.122337
411.037,-2.0431
412.04,-0.120893
413.043,0.264083
414.047,6.53948
415.05,-4.52857
416.054,7.35104
417.057,-8.68578
418.06,4.33279
419.064,-1.1817
420.067,1.9547
421.07,-4.80337
422.074,-0.273756
423.077,1.11798
424.08,3.25223
425.084,6.9265
426.087,-1.79356
427.09,6.96271
428.094,8.22289
429.097,-0.279386
430.1,1.57887
431.104,-3.5742
432.107,-4.22811
433.11,3.79113
434.114,4.10079
435.117,2.0299
436.12,-1.67988
437.124,-11.057
438.127,1.0429
439.13,5.80737
440.134,-0.703566
441.137,-4.41671
442.14,7.02605
443.144,-5.96462
444.147,-3.96504
445.151,-5.09289
446.154,10.5569
447.157,-1.00059
448.161,6.24609
449.164,0.372245
450.167,2.38124
451.171,6.48692
452.174,-1.52897
453.177,5.62696
454.181,-1.99125
455.184,-5.12464
456.187,3.59572
457.191,1.11544
458.194,-1.57193
459.197,2.88089
460.201,0.637904
461.204,8.40496
462.207,2.29172
463.211,4.03867
464.214,-3.96785
465.217,1.88778
466.221,5.43099
467.224,3.50579
468.227,-2.48693
469.231,-4.17755
470.234,0.416745
471.237,5.64284
472.241,6.69152
473.244,2.57002
474.247,-8.12577
475.251,7.56895
476.254,6.76906
477.258,4.87492
478.261,12.8258
479.264,14.4159
480.268,5.23552
481.271,18.1561
482.274,10.5458
483.278,18.7455
484.281,17.7702
485.284,23.2666
486.288,22.4062
487.291,22.1548
488.294,29.5619
489.298,42.8802
490.301,42.2993
491.304,47.5894
492.308,56.8902
493.311,51.9131
494.314,68.0482
495.318,70.6535
496.321,87.1497
497.324,94.1701
498.328,100.086
499.331,112.119
500.334,130.792
501.338,130.804
502.341,133.49
503.344,146.675
504.348,155.145
505.351,174.391
506.355,180.546
507.358,187.423
508.361,196.659
509.365,216.369
510.368,213.925
511.371,222.87
512.375,232.862
513.378,243.958
514.381,245.611
515.385,253.611
516.388,246.775
517.391,262.05
518.395,259.096
519.398,256.224
520.401,250.415
521.405,249.181
522.408,244.596
523.411,249.431
524.415,241.343
525.418,240.124
526.421,225.858
527.425,227.719
528.428,212.608
529.431,212.375
530.435,204.157
531.438,188.282
532.441,173.38
533.445,172.08
534.448,153.959
535.452,154.205
536.455,134.37
537.458,134.627
538.462,117.179
539.465,109.723
540.468,109.401
541.472,95.3115
542.475,79.2939
543.478,73.4661
544.482,72.0646
545.485,67.8955
546.488,62.3753
547.492,47.7666
548.495,50.8142
549.498,36.8935
550.502,37.4492
551.505,28.0048
552.508,20.4919
553.512,23.5053
554.515,17.4992
555.518,12.2965
556.522,17.5503
557.525,9.37683
558.528,17.5125
559.532,9.97193
560.535,15.1617
561.538,5.48592
562.542,-0.312594
563.545,10.1811
564.548,4.13156
565.552,3.94728
566.555,-1.63306
567.559,3.78128
568.562,-5.46827
569.565,1.93862
570.569,7.54565
571.572,0.0223343
572.575,-7.40026
573.579,-6.82241
574.582,-0.245665
575.585,-2.22944
576.589,-2.07372
577.592,-0.756614
578.595,5.49824
579.599,1.60859
580.602,1.40704
581.605,-7.48384
582.609,-3.16608
583.612,-2.7842
584.615,1.7926
585.619,2.54391
586.622,0.128021
587.625,-0.489994
588.629,-0.430509
589.632,-3.62645
590.635,3.21547
591.639,-1.07654
592.642,-4.41114
593.645,-3.76426
594.649,1.14313
595.652,0.117383
596.656,0.62749
597.659,-1.60688
598.662,-10.3079
599.666,5.68172
600.669,2.5389
601.672,1.79292
602.676,5.52115
603.679,0.765136
604.682,-6.15927
605.686,2.86505
606.689,10.7025
607.692,-0.30865
608.696,-2.0136
609.699,-0.814606
610.702,-2.71138
611.706,0.357935
612.709,-5.99688
613.712,2.49125
614.716,-1.59121
615.719,12.0651
616.722,-5.0052
617.726,13.6843
618.729,-6.32147
619.732,8.62926
620.736,-0.218518
621.739,-1.44488
622.742,2.34726
623.746,1.83794
624.749,9.86647
625.753,5.65023
626.756,3.41213
627.759,4.2326
628.763,-4.88839
629.766,-2.74027
630.769,-0.6944
631.773,5.39161
632.776,-5.41709
633.779,-1.069
634.783,3.97532
635.786,-3.92336
636.789,0.750342
637.793,-1.88243
638.796,2.10004
639.799,7.25622
640.803,-3.89232
641.806,7.61287
642.809,-3.99441
643.813,4.12975
644.816,-4.00886
645.819,-5.15767
646.823,-4.57445
647.826,-8.30145
648.829,-7.38796
649.833,14.7257
650.836,2.49511
651.839,4.71172
652.843,7.43649
653.846,-0.56066
654.849,-5.34752
655.853,4.52213
656.856,-5.78837
657.86,-1.19834
658.863,-8.88164
659.866,7.24003
660.87,-4.81848
661.873,-4.29135
662.876,-1.53631
663.88,-2.5791
664.883,-3.2148
665.886,1.53617
666.89,-2.7067
667.893,-0.785396
668.896,-0.0462273
669.9,-8.62266
670.903,8.42131
671.906,-10.7493
672.91,-5.57196
673.913,3.37276
674.916,0.213227
675.92,-1.09238
676.923,3.21408
677.926,-7.30876
678.93,0.638203
679.933,9.54807
680.936,2.95688
681.94,7.71552
682.943,3.79453
683.946,8.17739
684.95,1.92103
685.953,1.49228
686.957,7.41803
687.96,-2.54644
688.963,4.00867
689.967,1.27828
690.97,-4.63473
691.973,-1.64281
692.977,-1.32669
693.98,1.28879
694.983,7.25023
695.987,-4.21678
696.99,4.71994
697.993,0.617952
698.997,-1.30929
700.0,-0.2152