File: examples/quantum_dot_api_example/measurements/experiment_05_measurement.csv
Wavelength (nm),Intensity (a.u.)
400.0,-10.62
401.003,3.89734
402.007,-4.29339
403.01,-3.61292
404.013,-4.82104
405.017,-6.75888
406.02,-12.9724
407.023,-4.12308
408.027,-1.27751
409.03,0.536759
410.033,-3.3703
411.037,-0.272986
412.04,7.73079
413.043,-3.6325
414.047,-5.59802
415.05,-2.40415
416.054,-8.09592
417.057,-1.05563
418.06,-2.11234
419.064,-4.54746
420.067,0.137824
421.07,-5.88436
422.074,2.13449
423.077,2.19307
424.08,11.0909
425.084,2.41966
426.087,-1.62596
427.09,-1.76464
428.094,7.89971
429.097,2.82669
430.1,-9.92507
431.104,7.02468
432.107,-0.232955
433.11,1.67792
434.114,-0.327098
435.117,-3.67115
436.12,8.91129
437.124,2.4393
438.127,12.9509
439.13,-4.52428
440.134,-2.72176
441.137,3.79197
442.14,3.30382
443.144,10.7671
444.147,1.34673
445.151,5.97017
446.154,11.8352
447.157,18.0291
448.161,10.2749
449.164,7.23346
450.167,1.90763
451.171,7.04549
452.174,12.5243
453.177,13.8391
454.181,18.7317
455.184,9.19992
456.187,16.9631
457.191,22.9163
458.194,22.0747
459.197,27.7933
460.201,34.2315
461.204,34.6371
462.207,34.2476
463.211,36.8219
464.214,42.0555
465.217,42.9306
466.221,45.0951
467.224,46.2078
468.227,48.3629
469.231,68.4694
470.234,58.6791
471.237,74.7504
472.241,84.985
473.244,77.2424
474.247,90.6852
475.251,88.8683
476.254,97.5745
477.258,114.214
478.261,113.928
479.264,118.073
480.268,118.398
481.271,136.549
482.274,141.581
483.278,160.826
484.281,156.754
485.284,164.546
486.288,170.475
487.291,186.02
488.294,185.247
489.298,191.84
490.301,200.562
491.304,207.997
492.308,217.907
493.311,220.009
494.314,228.385
495.318,241.256
496.321,239.442
497.324,252.367
498.328,250.28
499.331,260.955
500.334,259.056
501.338,274.131
502.341,266.925
503.344,268.88
504.348,262.785
505.351,282.216
506.355,272.332
507.358,278.921
508.361,282.903
509.365,277.998
510.368,280.408
511.371,281.27
512.375,281.53
513.378,278.576
514.381,261.409
515.385,261.83
516.388,275.114
517.391,264.247
518.395,257.542
519.398,250.109
520.401,241.614
521.405,245.045
522.408,222.447
523.411,230.861
524.415,217.928
525.418,204.861
526.421,211.554
527.425,194.086
528.428,192.769
529.431,176.756
530.435,187.781
531.438,176.12
532.441,158.359
533.445,153.736
534.448,143.862
535.452,144.366
536.455,131.397
537.458,125.106
538.462,107.522
539.465,103.514
540.468,105.079
541.472,101.753
542.475,96.4493
543.478,80.5816
544.482,78.103
545.485,79.1554
546.488,73.892
547.492,66.4068
548.495,59.0598
549.498,56.6218
550.502,50.6293
551.505,51.8595
552.508,45.8428
553.512,45.4909
554.515,27.4397
555.518,37.1992
556.522,30.7744
557.525,33.3387
558.528,31.2865
559.532,19.2732
560.535,24.7804
561.538,24.7608
562.542,27.0253
563.545,15.8568
564.548,21.3406
565.552,8.18636
566.555,5.21266
567.559,9.54333
568.562,13.5543
569.565,9.56547
570.569,13.0074
571.572,3.02911
572.575,18.4456
573.579,6.75789
574.582,4.77144
575.585,5.05146
576.589,6.12361
577.592,5.73796
578.595,1.08428
579.599,-3.75776
580.602,-2.12636
581.605,1.56946
582.609,8.61622
583.612,1.78403
584.615,-2.47833
585.619,-0.427708
586.622,5.87944
587.625,6.92376
588.629,-9.62935
589.632,6.9286
590.635,6.21026
591.639,-1.91434
592.642,8.72692
593.645,0.819057
594.649,-3.81538
595.652,-1.12133
596.656,-3.37158
597.659,6.57808
598.662,4.97072
599.666,-1.59332
600.669,8.7304
601.672,9.75755
602.676,8.59891
603.679,-3.20294
604.682,-8.82522
605.686,3.75593
606.689,-10.6085
607.692,0.0334303
608.696,0.113016
609.699,5.76362
610.702,0.554293
611.706,-3.714
612.709,-3.56993
613.712,1.01356
614.716,-5.0711
615.719,-0.683512
616.722,-10.4678
617.726,-3.71783
618.729,0.0832444
619.732,-2.4451
620.736,-9.69378
621.739,-6.69487
622.742,-3.46991
623.746,-2.72689
624.749,5.17392
625.753,0.881883
626.756,-0.0890202
627.759,-5.83572
628.763,-3.72753
629.766,-8.32905
630.769,-9.6048
631.773,6.44991
632.776,1.16639
633.779,-1.74253
634.783,8.85177
635.786,3.99694
636.789,0.0328066
637.793,-2.80031
638.796,-3.62546
639.799,0.0634557
640.803,7.74829
641.806,11.2485
642.809,-1.36402
643.813,4.64334
644.816,-4.66545
645.819,2.30184
646.823,3.3873
647.826,-0.911822
648.829,-1.13888
649.833,4.37828
650.836,1.13163
651.839,-9.0025
652.843,-3.07406
653.846,-3.36364
654.849,-6.33864
655.853,1.02933
656.856,-4.627
657.86,6.00922
658.863,-0.15226
659.866,-1.53371
660.87,8.95372
661.873,-0.331717
662.876,-3.99538
663.88,6.65005
664.883,-2.80317
665.886,-4.88743
666.89,0.128716
667.893,-2.87289
668.896,6.50769
669.9,6.30278
670.903,1.76274
671.906,4.03875
672.91,3.53857
673.913,4.64882
674.916,-1.08947
675.92,2.1667
676.923,3.84607
677.926,-6.46397
678.93,8.20655
679.933,-0.962097
680.936,-1.86986
681.94,5.60877
682.943,6.00107
683.946,0.866001
684.95,-7.05471
685.953,0.649517
686.957,5.498
687.96,-2.60854
688.963,-1.11442
689.967,6.32586
690.97,3.83326
691.973,11.6312
692.977,7.40201
693.98,1.23132
694.983,7.96959
695.987,4.14944
696.99,-4.7552
697.993,-7.52083
698.997,5.75088
700.0,1.62193